SOURCES 4C Calculation
<<<<<<<<<<<>>>>>>>>>>>



                      Summary of Input
                      ================
 
Title: SNOLAB - NORITE U238                                                         
Homogeneous problem input (idd = 1)
Magnitudes and spectra computed (id = 2)
Ascending energy structure for output (erg =  1)
Number of elemental constituents: 10
Solid stopping cross-sections used (isg = 0)
 
Elemental Constituents:
 
  Z-value  Atom Fraction
  -------  -------------
      6     0.0005240000
      8     0.6262639761
     11     0.0156833548
     12     0.0522561185
     13     0.0466959998
     14     0.2007474452
     19     0.0052000000
     20     0.0179397296
     25     0.0003820000
     26     0.0239092391
 
Number of neutron spectrum energy groups: 240
Maximum neutron energy is  1.200E+01 MeV.
Minimum neutron energy is  0.000E+00 MeV.
 
Energy Group Structure:
 
  Group  Upper-Bound  Lower-Bound
  -----  -----------  -----------
     1     1.200E+01    1.195E+01
     2     1.195E+01    1.190E+01
     3     1.190E+01    1.185E+01
     4     1.185E+01    1.180E+01
     5     1.180E+01    1.175E+01
     6     1.175E+01    1.170E+01
     7     1.170E+01    1.165E+01
     8     1.165E+01    1.160E+01
     9     1.160E+01    1.155E+01
    10     1.155E+01    1.150E+01
    11     1.150E+01    1.145E+01
    12     1.145E+01    1.140E+01
    13     1.140E+01    1.135E+01
    14     1.135E+01    1.130E+01
    15     1.130E+01    1.125E+01
    16     1.125E+01    1.120E+01
    17     1.120E+01    1.115E+01
    18     1.115E+01    1.110E+01
    19     1.110E+01    1.105E+01
    20     1.105E+01    1.100E+01
    21     1.100E+01    1.095E+01
    22     1.095E+01    1.090E+01
    23     1.090E+01    1.085E+01
    24     1.085E+01    1.080E+01
    25     1.080E+01    1.075E+01
    26     1.075E+01    1.070E+01
    27     1.070E+01    1.065E+01
    28     1.065E+01    1.060E+01
    29     1.060E+01    1.055E+01
    30     1.055E+01    1.050E+01
    31     1.050E+01    1.045E+01
    32     1.045E+01    1.040E+01
    33     1.040E+01    1.035E+01
    34     1.035E+01    1.030E+01
    35     1.030E+01    1.025E+01
    36     1.025E+01    1.020E+01
    37     1.020E+01    1.015E+01
    38     1.015E+01    1.010E+01
    39     1.010E+01    1.005E+01
    40     1.005E+01    1.000E+01
    41     1.000E+01    9.950E+00
    42     9.950E+00    9.900E+00
    43     9.900E+00    9.850E+00
    44     9.850E+00    9.800E+00
    45     9.800E+00    9.750E+00
    46     9.750E+00    9.700E+00
    47     9.700E+00    9.650E+00
    48     9.650E+00    9.600E+00
    49     9.600E+00    9.550E+00
    50     9.550E+00    9.500E+00
    51     9.500E+00    9.450E+00
    52     9.450E+00    9.400E+00
    53     9.400E+00    9.350E+00
    54     9.350E+00    9.300E+00
    55     9.300E+00    9.250E+00
    56     9.250E+00    9.200E+00
    57     9.200E+00    9.150E+00
    58     9.150E+00    9.100E+00
    59     9.100E+00    9.050E+00
    60     9.050E+00    9.000E+00
    61     9.000E+00    8.950E+00
    62     8.950E+00    8.900E+00
    63     8.900E+00    8.850E+00
    64     8.850E+00    8.800E+00
    65     8.800E+00    8.750E+00
    66     8.750E+00    8.700E+00
    67     8.700E+00    8.650E+00
    68     8.650E+00    8.600E+00
    69     8.600E+00    8.550E+00
    70     8.550E+00    8.500E+00
    71     8.500E+00    8.450E+00
    72     8.450E+00    8.400E+00
    73     8.400E+00    8.350E+00
    74     8.350E+00    8.300E+00
    75     8.300E+00    8.250E+00
    76     8.250E+00    8.200E+00
    77     8.200E+00    8.150E+00
    78     8.150E+00    8.100E+00
    79     8.100E+00    8.050E+00
    80     8.050E+00    8.000E+00
    81     8.000E+00    7.950E+00
    82     7.950E+00    7.900E+00
    83     7.900E+00    7.850E+00
    84     7.850E+00    7.800E+00
    85     7.800E+00    7.750E+00
    86     7.750E+00    7.700E+00
    87     7.700E+00    7.650E+00
    88     7.650E+00    7.600E+00
    89     7.600E+00    7.550E+00
    90     7.550E+00    7.500E+00
    91     7.500E+00    7.450E+00
    92     7.450E+00    7.400E+00
    93     7.400E+00    7.350E+00
    94     7.350E+00    7.300E+00
    95     7.300E+00    7.250E+00
    96     7.250E+00    7.200E+00
    97     7.200E+00    7.150E+00
    98     7.150E+00    7.100E+00
    99     7.100E+00    7.050E+00
   100     7.050E+00    7.000E+00
   101     7.000E+00    6.950E+00
   102     6.950E+00    6.900E+00
   103     6.900E+00    6.850E+00
   104     6.850E+00    6.800E+00
   105     6.800E+00    6.750E+00
   106     6.750E+00    6.700E+00
   107     6.700E+00    6.650E+00
   108     6.650E+00    6.600E+00
   109     6.600E+00    6.550E+00
   110     6.550E+00    6.500E+00
   111     6.500E+00    6.450E+00
   112     6.450E+00    6.400E+00
   113     6.400E+00    6.350E+00
   114     6.350E+00    6.300E+00
   115     6.300E+00    6.250E+00
   116     6.250E+00    6.200E+00
   117     6.200E+00    6.150E+00
   118     6.150E+00    6.100E+00
   119     6.100E+00    6.050E+00
   120     6.050E+00    6.000E+00
   121     6.000E+00    5.950E+00
   122     5.950E+00    5.900E+00
   123     5.900E+00    5.850E+00
   124     5.850E+00    5.800E+00
   125     5.800E+00    5.750E+00
   126     5.750E+00    5.700E+00
   127     5.700E+00    5.650E+00
   128     5.650E+00    5.600E+00
   129     5.600E+00    5.550E+00
   130     5.550E+00    5.500E+00
   131     5.500E+00    5.450E+00
   132     5.450E+00    5.400E+00
   133     5.400E+00    5.350E+00
   134     5.350E+00    5.300E+00
   135     5.300E+00    5.250E+00
   136     5.250E+00    5.200E+00
   137     5.200E+00    5.150E+00
   138     5.150E+00    5.100E+00
   139     5.100E+00    5.050E+00
   140     5.050E+00    5.000E+00
   141     5.000E+00    4.950E+00
   142     4.950E+00    4.900E+00
   143     4.900E+00    4.850E+00
   144     4.850E+00    4.800E+00
   145     4.800E+00    4.750E+00
   146     4.750E+00    4.700E+00
   147     4.700E+00    4.650E+00
   148     4.650E+00    4.600E+00
   149     4.600E+00    4.550E+00
   150     4.550E+00    4.500E+00
   151     4.500E+00    4.450E+00
   152     4.450E+00    4.400E+00
   153     4.400E+00    4.350E+00
   154     4.350E+00    4.300E+00
   155     4.300E+00    4.250E+00
   156     4.250E+00    4.200E+00
   157     4.200E+00    4.150E+00
   158     4.150E+00    4.100E+00
   159     4.100E+00    4.050E+00
   160     4.050E+00    4.000E+00
   161     4.000E+00    3.950E+00
   162     3.950E+00    3.900E+00
   163     3.900E+00    3.850E+00
   164     3.850E+00    3.800E+00
   165     3.800E+00    3.750E+00
   166     3.750E+00    3.700E+00
   167     3.700E+00    3.650E+00
   168     3.650E+00    3.600E+00
   169     3.600E+00    3.550E+00
   170     3.550E+00    3.500E+00
   171     3.500E+00    3.450E+00
   172     3.450E+00    3.400E+00
   173     3.400E+00    3.350E+00
   174     3.350E+00    3.300E+00
   175     3.300E+00    3.250E+00
   176     3.250E+00    3.200E+00
   177     3.200E+00    3.150E+00
   178     3.150E+00    3.100E+00
   179     3.100E+00    3.050E+00
   180     3.050E+00    3.000E+00
   181     3.000E+00    2.950E+00
   182     2.950E+00    2.900E+00
   183     2.900E+00    2.850E+00
   184     2.850E+00    2.800E+00
   185     2.800E+00    2.750E+00
   186     2.750E+00    2.700E+00
   187     2.700E+00    2.650E+00
   188     2.650E+00    2.600E+00
   189     2.600E+00    2.550E+00
   190     2.550E+00    2.500E+00
   191     2.500E+00    2.450E+00
   192     2.450E+00    2.400E+00
   193     2.400E+00    2.350E+00
   194     2.350E+00    2.300E+00
   195     2.300E+00    2.250E+00
   196     2.250E+00    2.200E+00
   197     2.200E+00    2.150E+00
   198     2.150E+00    2.100E+00
   199     2.100E+00    2.050E+00
   200     2.050E+00    2.000E+00
   201     2.000E+00    1.950E+00
   202     1.950E+00    1.900E+00
   203     1.900E+00    1.850E+00
   204     1.850E+00    1.800E+00
   205     1.800E+00    1.750E+00
   206     1.750E+00    1.700E+00
   207     1.700E+00    1.650E+00
   208     1.650E+00    1.600E+00
   209     1.600E+00    1.550E+00
   210     1.550E+00    1.500E+00
   211     1.500E+00    1.450E+00
   212     1.450E+00    1.400E+00
   213     1.400E+00    1.350E+00
   214     1.350E+00    1.300E+00
   215     1.300E+00    1.250E+00
   216     1.250E+00    1.200E+00
   217     1.200E+00    1.150E+00
   218     1.150E+00    1.100E+00
   219     1.100E+00    1.050E+00
   220     1.050E+00    1.000E+00
   221     1.000E+00    9.500E-01
   222     9.500E-01    9.000E-01
   223     9.000E-01    8.500E-01
   224     8.500E-01    8.000E-01
   225     8.000E-01    7.500E-01
   226     7.500E-01    7.000E-01
   227     7.000E-01    6.500E-01
   228     6.500E-01    6.000E-01
   229     6.000E-01    5.500E-01
   230     5.500E-01    5.000E-01
   231     5.000E-01    4.500E-01
   232     4.500E-01    4.000E-01
   233     4.000E-01    3.500E-01
   234     3.500E-01    3.000E-01
   235     3.000E-01    2.500E-01
   236     2.500E-01    2.000E-01
   237     2.000E-01    1.500E-01
   238     1.500E-01    1.000E-01
   239     1.000E-01    5.000E-02
   239     5.000E-02    0.000E+00
 
Number of source nuclides to be evaluated: 13
 
Source Nuclides:
 
    ZAID     Atom Density (g/cc)
    ----     -------------------
   922380     8.070E+15
   922340     4.440E+11
   902300     1.360E+11
   882260     2.890E+09
   862220     1.890E+04
   842180     1.060E+01
   852180     7.330E-02
   862180     1.930E-03
   832140     6.840E+01
   842140     9.370E-06
   822100     4.010E+07
   832100     2.480E+04
   842100     6.850E+05
 
Number of target nuclides to be used: 24
 4000 Alpha energy groups used.
 
Target Nuclides:
 
    ZAID     Atom Fraction
    ----     -------------
    60130     5.554E-06
    80170     2.405E-04
    80180     1.284E-03
   110230     1.568E-02
   120240     4.128E-02
   120250     5.226E-03
   120260     5.748E-03
   130270     4.670E-02
   140280     1.851E-01
   140290     9.375E-04
   140300     6.163E-04
   190390     4.852E-03
   190400     1.170E-04
   190410     3.500E-05
   200420     1.161E-04
   200430     2.422E-05
   200440     3.749E-04
   200460     7.176E-07
   200480     1.870E-03
   250550     3.820E-04
   260540     1.399E-03
   260560     2.195E-02
   260570     5.069E-04
   260580     6.695E-05
 
 


                      Summary of Output
                      =================
 
Total (alpha,n) neutron source from all sources and targets:  1.551E-07 n/sec-cm^3.

Total spontaneous fission neutron source from all sources and targets:  4.346E-08 n/sec-cm^3.

Total delayed neutron source from all sources and targets:  0.000E+00 n/sec-cm^3.

Total neutron source from all sources and targets:  1.985E-07 n/sec-cm^3.

Average (alpha,n) neutron energy:  2.130E+00 MeV.

Average spontaneous fission neutron energy:  1.68813E+00 MeV.

Average delayed neutron energy:  0.000E+00 MeV.

Average neutron energy from all sources:  2.033E+00 MeV.

Normalized Neutron Energy Spectrum by Energy Group for All Sources:
(Note: descending group structure is independent of erg record.)

          Group     Contribution
          -----     ------------
             1        1.229E-07
             2        1.283E-07
             3        1.339E-07
             4        1.399E-07
             5        1.528E-07
             6        1.595E-07
             7        1.666E-07
             8        1.806E-07
             9        1.886E-07
            10        2.035E-07
            11        2.124E-07
            12        2.284E-07
            13        2.383E-07
            14        2.554E-07
            15        2.665E-07
            16        2.849E-07
            17        3.039E-07
            18        3.170E-07
            19        3.440E-07
            20        3.588E-07
            21        3.809E-07
            22        3.974E-07
            23        4.279E-07
            24        4.528E-07
            25        4.788E-07
            26        5.060E-07
            27        5.343E-07
            28        5.703E-07
            29        6.012E-07
            30        6.334E-07
            31        6.736E-07
            32        7.153E-07
            33        7.522E-07
            34        7.973E-07
            35        8.442E-07
            36        8.995E-07
            37        9.438E-07
            38        1.234E-06
            39        1.934E-06
            40        2.663E-06
            41        3.407E-06
            42        4.167E-06
            43        4.939E-06
            44        5.725E-06
            45        6.530E-06
            46        7.342E-06
            47        8.174E-06
            48        9.032E-06
            49        1.036E-05
            50        1.197E-05
            51        1.360E-05
            52        1.527E-05
            53        1.696E-05
            54        1.867E-05
            55        2.041E-05
            56        2.219E-05
            57        2.426E-05
            58        2.671E-05
            59        2.923E-05
            60        3.179E-05
            61        3.440E-05
            62        3.704E-05
            63        3.971E-05
            64        4.242E-05
            65        4.515E-05
            66        4.791E-05
            67        5.069E-05
            68        5.348E-05
            69        5.629E-05
            70        5.916E-05
            71        6.272E-05
            72        6.649E-05
            73        7.025E-05
            74        7.406E-05
            75        7.991E-05
            76        8.690E-05
            77        9.395E-05
            78        1.011E-04
            79        1.083E-04
            80        1.156E-04
            81        1.236E-04
            82        1.318E-04
            83        1.401E-04
            84        1.483E-04
            85        1.571E-04
            86        1.684E-04
            87        1.801E-04
            88        1.919E-04
            89        2.035E-04
            90        2.151E-04
            91        2.266E-04
            92        2.388E-04
            93        2.524E-04
            94        2.683E-04
            95        2.859E-04
            96        3.040E-04
            97        3.222E-04
            98        3.401E-04
            99        3.575E-04
           100        3.748E-04
           101        3.920E-04
           102        4.092E-04
           103        4.285E-04
           104        4.486E-04
           105        4.687E-04
           106        4.890E-04
           107        5.103E-04
           108        5.335E-04
           109        5.565E-04
           110        5.811E-04
           111        6.074E-04
           112        6.349E-04
           113        6.626E-04
           114        6.903E-04
           115        7.174E-04
           116        7.414E-04
           117        7.658E-04
           118        7.944E-04
           119        8.262E-04
           120        8.595E-04
           121        8.970E-04
           122        9.354E-04
           123        9.740E-04
           124        1.010E-03
           125        1.047E-03
           126        1.083E-03
           127        1.119E-03
           128        1.158E-03
           129        1.199E-03
           130        1.239E-03
           131        1.280E-03
           132        1.321E-03
           133        1.365E-03
           134        1.413E-03
           135        1.470E-03
           136        1.531E-03
           137        1.594E-03
           138        1.658E-03
           139        1.723E-03
           140        1.785E-03
           141        1.844E-03
           142        1.905E-03
           143        1.971E-03
           144        2.035E-03
           145        2.104E-03
           146        2.177E-03
           147        2.253E-03
           148        2.343E-03
           149        2.441E-03
           150        2.540E-03
           151        2.641E-03
           152        2.746E-03
           153        2.852E-03
           154        2.964E-03
           155        3.075E-03
           156        3.193E-03
           157        3.316E-03
           158        3.445E-03
           159        3.587E-03
           160        3.722E-03
           161        3.857E-03
           162        4.003E-03
           163        4.163E-03
           164        4.319E-03
           165        4.482E-03
           166        4.654E-03
           167        4.846E-03
           168        5.051E-03
           169        5.263E-03
           170        5.462E-03
           171        5.663E-03
           172        5.874E-03
           173        6.088E-03
           174        6.307E-03
           175        6.547E-03
           176        6.785E-03
           177        7.007E-03
           178        7.227E-03
           179        7.476E-03
           180        7.745E-03
           181        8.029E-03
           182        8.336E-03
           183        8.652E-03
           184        8.920E-03
           185        9.175E-03
           186        9.421E-03
           187        9.644E-03
           188        9.865E-03
           189        1.010E-02
           190        1.038E-02
           191        1.067E-02
           192        1.095E-02
           193        1.123E-02
           194        1.148E-02
           195        1.173E-02
           196        1.201E-02
           197        1.223E-02
           198        1.242E-02
           199        1.264E-02
           200        1.287E-02
           201        1.309E-02
           202        1.331E-02
           203        1.353E-02
           204        1.375E-02
           205        1.400E-02
           206        1.425E-02
           207        1.453E-02
           208        1.482E-02
           209        1.507E-02
           210        1.525E-02
           211        1.536E-02
           212        1.554E-02
           213        1.572E-02
           214        1.594E-02
           215        1.620E-02
           216        1.645E-02
           217        1.666E-02
           218        1.677E-02
           219        1.683E-02
           220        1.686E-02
           221        1.683E-02
           222        1.682E-02
           223        1.683E-02
           224        1.678E-02
           225        1.670E-02
           226        1.648E-02
           227        1.621E-02
           228        1.591E-02
           229        1.554E-02
           230        1.504E-02
           231        1.447E-02
           232        1.387E-02
           233        1.314E-02
           234        1.229E-02
           235        1.134E-02
           236        1.025E-02
           237        9.053E-03
           238        7.657E-03
           239        6.070E-03
           240        3.665E-03

Portion of Total Neutron Source Rate Accounted for in the Total Energy Spectrum:  99.0%.

Portion of Spontaneous Fission Neutron Source Rate Accounted For in the Spontaneous Fission Energy Spectrum: 100.0%.
