SOURCES 4C Calculation
<<<<<<<<<<<>>>>>>>>>>>



                      Summary of Input
                      ================
 
Title: SNOLAB - SHOTCRETE U238                                                      
Homogeneous problem input (idd = 1)
Magnitudes and spectra computed (id = 2)
Ascending energy structure for output (erg =  1)
Number of elemental constituents: 12
Solid stopping cross-sections used (isg = 0)
 
Elemental Constituents:
 
  Z-value  Atom Fraction
  -------  -------------
      1     0.0084199999
      6     0.0007020000
      8     0.6315420270
     11     0.0205940008
     12     0.0103500001
     13     0.0470930003
     14     0.2097620070
     19     0.0094999997
     20     0.0502079986
     22     0.0008640000
     25     0.0014160000
     26     0.0095480001
 
Number of neutron spectrum energy groups: 240
Maximum neutron energy is  1.200E+01 MeV.
Minimum neutron energy is  0.000E+00 MeV.
 
Energy Group Structure:
 
  Group  Upper-Bound  Lower-Bound
  -----  -----------  -----------
     1     1.200E+01    1.195E+01
     2     1.195E+01    1.190E+01
     3     1.190E+01    1.185E+01
     4     1.185E+01    1.180E+01
     5     1.180E+01    1.175E+01
     6     1.175E+01    1.170E+01
     7     1.170E+01    1.165E+01
     8     1.165E+01    1.160E+01
     9     1.160E+01    1.155E+01
    10     1.155E+01    1.150E+01
    11     1.150E+01    1.145E+01
    12     1.145E+01    1.140E+01
    13     1.140E+01    1.135E+01
    14     1.135E+01    1.130E+01
    15     1.130E+01    1.125E+01
    16     1.125E+01    1.120E+01
    17     1.120E+01    1.115E+01
    18     1.115E+01    1.110E+01
    19     1.110E+01    1.105E+01
    20     1.105E+01    1.100E+01
    21     1.100E+01    1.095E+01
    22     1.095E+01    1.090E+01
    23     1.090E+01    1.085E+01
    24     1.085E+01    1.080E+01
    25     1.080E+01    1.075E+01
    26     1.075E+01    1.070E+01
    27     1.070E+01    1.065E+01
    28     1.065E+01    1.060E+01
    29     1.060E+01    1.055E+01
    30     1.055E+01    1.050E+01
    31     1.050E+01    1.045E+01
    32     1.045E+01    1.040E+01
    33     1.040E+01    1.035E+01
    34     1.035E+01    1.030E+01
    35     1.030E+01    1.025E+01
    36     1.025E+01    1.020E+01
    37     1.020E+01    1.015E+01
    38     1.015E+01    1.010E+01
    39     1.010E+01    1.005E+01
    40     1.005E+01    1.000E+01
    41     1.000E+01    9.950E+00
    42     9.950E+00    9.900E+00
    43     9.900E+00    9.850E+00
    44     9.850E+00    9.800E+00
    45     9.800E+00    9.750E+00
    46     9.750E+00    9.700E+00
    47     9.700E+00    9.650E+00
    48     9.650E+00    9.600E+00
    49     9.600E+00    9.550E+00
    50     9.550E+00    9.500E+00
    51     9.500E+00    9.450E+00
    52     9.450E+00    9.400E+00
    53     9.400E+00    9.350E+00
    54     9.350E+00    9.300E+00
    55     9.300E+00    9.250E+00
    56     9.250E+00    9.200E+00
    57     9.200E+00    9.150E+00
    58     9.150E+00    9.100E+00
    59     9.100E+00    9.050E+00
    60     9.050E+00    9.000E+00
    61     9.000E+00    8.950E+00
    62     8.950E+00    8.900E+00
    63     8.900E+00    8.850E+00
    64     8.850E+00    8.800E+00
    65     8.800E+00    8.750E+00
    66     8.750E+00    8.700E+00
    67     8.700E+00    8.650E+00
    68     8.650E+00    8.600E+00
    69     8.600E+00    8.550E+00
    70     8.550E+00    8.500E+00
    71     8.500E+00    8.450E+00
    72     8.450E+00    8.400E+00
    73     8.400E+00    8.350E+00
    74     8.350E+00    8.300E+00
    75     8.300E+00    8.250E+00
    76     8.250E+00    8.200E+00
    77     8.200E+00    8.150E+00
    78     8.150E+00    8.100E+00
    79     8.100E+00    8.050E+00
    80     8.050E+00    8.000E+00
    81     8.000E+00    7.950E+00
    82     7.950E+00    7.900E+00
    83     7.900E+00    7.850E+00
    84     7.850E+00    7.800E+00
    85     7.800E+00    7.750E+00
    86     7.750E+00    7.700E+00
    87     7.700E+00    7.650E+00
    88     7.650E+00    7.600E+00
    89     7.600E+00    7.550E+00
    90     7.550E+00    7.500E+00
    91     7.500E+00    7.450E+00
    92     7.450E+00    7.400E+00
    93     7.400E+00    7.350E+00
    94     7.350E+00    7.300E+00
    95     7.300E+00    7.250E+00
    96     7.250E+00    7.200E+00
    97     7.200E+00    7.150E+00
    98     7.150E+00    7.100E+00
    99     7.100E+00    7.050E+00
   100     7.050E+00    7.000E+00
   101     7.000E+00    6.950E+00
   102     6.950E+00    6.900E+00
   103     6.900E+00    6.850E+00
   104     6.850E+00    6.800E+00
   105     6.800E+00    6.750E+00
   106     6.750E+00    6.700E+00
   107     6.700E+00    6.650E+00
   108     6.650E+00    6.600E+00
   109     6.600E+00    6.550E+00
   110     6.550E+00    6.500E+00
   111     6.500E+00    6.450E+00
   112     6.450E+00    6.400E+00
   113     6.400E+00    6.350E+00
   114     6.350E+00    6.300E+00
   115     6.300E+00    6.250E+00
   116     6.250E+00    6.200E+00
   117     6.200E+00    6.150E+00
   118     6.150E+00    6.100E+00
   119     6.100E+00    6.050E+00
   120     6.050E+00    6.000E+00
   121     6.000E+00    5.950E+00
   122     5.950E+00    5.900E+00
   123     5.900E+00    5.850E+00
   124     5.850E+00    5.800E+00
   125     5.800E+00    5.750E+00
   126     5.750E+00    5.700E+00
   127     5.700E+00    5.650E+00
   128     5.650E+00    5.600E+00
   129     5.600E+00    5.550E+00
   130     5.550E+00    5.500E+00
   131     5.500E+00    5.450E+00
   132     5.450E+00    5.400E+00
   133     5.400E+00    5.350E+00
   134     5.350E+00    5.300E+00
   135     5.300E+00    5.250E+00
   136     5.250E+00    5.200E+00
   137     5.200E+00    5.150E+00
   138     5.150E+00    5.100E+00
   139     5.100E+00    5.050E+00
   140     5.050E+00    5.000E+00
   141     5.000E+00    4.950E+00
   142     4.950E+00    4.900E+00
   143     4.900E+00    4.850E+00
   144     4.850E+00    4.800E+00
   145     4.800E+00    4.750E+00
   146     4.750E+00    4.700E+00
   147     4.700E+00    4.650E+00
   148     4.650E+00    4.600E+00
   149     4.600E+00    4.550E+00
   150     4.550E+00    4.500E+00
   151     4.500E+00    4.450E+00
   152     4.450E+00    4.400E+00
   153     4.400E+00    4.350E+00
   154     4.350E+00    4.300E+00
   155     4.300E+00    4.250E+00
   156     4.250E+00    4.200E+00
   157     4.200E+00    4.150E+00
   158     4.150E+00    4.100E+00
   159     4.100E+00    4.050E+00
   160     4.050E+00    4.000E+00
   161     4.000E+00    3.950E+00
   162     3.950E+00    3.900E+00
   163     3.900E+00    3.850E+00
   164     3.850E+00    3.800E+00
   165     3.800E+00    3.750E+00
   166     3.750E+00    3.700E+00
   167     3.700E+00    3.650E+00
   168     3.650E+00    3.600E+00
   169     3.600E+00    3.550E+00
   170     3.550E+00    3.500E+00
   171     3.500E+00    3.450E+00
   172     3.450E+00    3.400E+00
   173     3.400E+00    3.350E+00
   174     3.350E+00    3.300E+00
   175     3.300E+00    3.250E+00
   176     3.250E+00    3.200E+00
   177     3.200E+00    3.150E+00
   178     3.150E+00    3.100E+00
   179     3.100E+00    3.050E+00
   180     3.050E+00    3.000E+00
   181     3.000E+00    2.950E+00
   182     2.950E+00    2.900E+00
   183     2.900E+00    2.850E+00
   184     2.850E+00    2.800E+00
   185     2.800E+00    2.750E+00
   186     2.750E+00    2.700E+00
   187     2.700E+00    2.650E+00
   188     2.650E+00    2.600E+00
   189     2.600E+00    2.550E+00
   190     2.550E+00    2.500E+00
   191     2.500E+00    2.450E+00
   192     2.450E+00    2.400E+00
   193     2.400E+00    2.350E+00
   194     2.350E+00    2.300E+00
   195     2.300E+00    2.250E+00
   196     2.250E+00    2.200E+00
   197     2.200E+00    2.150E+00
   198     2.150E+00    2.100E+00
   199     2.100E+00    2.050E+00
   200     2.050E+00    2.000E+00
   201     2.000E+00    1.950E+00
   202     1.950E+00    1.900E+00
   203     1.900E+00    1.850E+00
   204     1.850E+00    1.800E+00
   205     1.800E+00    1.750E+00
   206     1.750E+00    1.700E+00
   207     1.700E+00    1.650E+00
   208     1.650E+00    1.600E+00
   209     1.600E+00    1.550E+00
   210     1.550E+00    1.500E+00
   211     1.500E+00    1.450E+00
   212     1.450E+00    1.400E+00
   213     1.400E+00    1.350E+00
   214     1.350E+00    1.300E+00
   215     1.300E+00    1.250E+00
   216     1.250E+00    1.200E+00
   217     1.200E+00    1.150E+00
   218     1.150E+00    1.100E+00
   219     1.100E+00    1.050E+00
   220     1.050E+00    1.000E+00
   221     1.000E+00    9.500E-01
   222     9.500E-01    9.000E-01
   223     9.000E-01    8.500E-01
   224     8.500E-01    8.000E-01
   225     8.000E-01    7.500E-01
   226     7.500E-01    7.000E-01
   227     7.000E-01    6.500E-01
   228     6.500E-01    6.000E-01
   229     6.000E-01    5.500E-01
   230     5.500E-01    5.000E-01
   231     5.000E-01    4.500E-01
   232     4.500E-01    4.000E-01
   233     4.000E-01    3.500E-01
   234     3.500E-01    3.000E-01
   235     3.000E-01    2.500E-01
   236     2.500E-01    2.000E-01
   237     2.000E-01    1.500E-01
   238     1.500E-01    1.000E-01
   239     1.000E-01    5.000E-02
   239     5.000E-02    0.000E+00
 
Number of source nuclides to be evaluated: 13
 
Source Nuclides:
 
    ZAID     Atom Density (g/cc)
    ----     -------------------
   922380     7.260E+15
   922340     3.990E+11
   902300     1.230E+11
   882260     2.600E+09
   862220     1.700E+04
   842180     9.580E+00
   852180     6.600E-02
   862180     1.740E-03
   832140     6.150E+01
   842140     8.430E-06
   822100     3.610E+07
   832100     2.230E+04
   842100     6.160E+05
 
Number of target nuclides to be used: 29
 4000 Alpha energy groups used.
 
Target Nuclides:
 
    ZAID     Atom Fraction
    ----     -------------
    60130     7.438E-06
    80170     2.425E-04
    80180     1.295E-03
   110230     2.059E-02
   120240     8.177E-03
   120250     1.035E-03
   120260     1.139E-03
   130270     4.709E-02
   140280     1.934E-01
   140290     9.796E-04
   140300     6.440E-04
   190390     8.864E-03
   190400     1.112E-06
   190410     6.394E-05
   200420     3.248E-04
   200430     6.778E-05
   200440     1.049E-03
   200460     2.008E-06
   200480     9.389E-05
   220460     7.128E-05
   220470     6.428E-05
   220480     6.324E-04
   220490     4.674E-05
   220500     4.475E-05
   250550     1.416E-03
   260540     5.586E-04
   260560     8.765E-03
   260570     2.024E-04
   260580     2.674E-05
 
 


                      Summary of Output
                      =================
 
Total (alpha,n) neutron source from all sources and targets:  1.114E-07 n/sec-cm^3.

Total spontaneous fission neutron source from all sources and targets:  3.910E-08 n/sec-cm^3.

Total delayed neutron source from all sources and targets:  0.000E+00 n/sec-cm^3.

Total neutron source from all sources and targets:  1.505E-07 n/sec-cm^3.

Average (alpha,n) neutron energy:  1.818E+00 MeV.

Average spontaneous fission neutron energy:  1.68813E+00 MeV.

Average delayed neutron energy:  0.000E+00 MeV.

Average neutron energy from all sources:  1.784E+00 MeV.

Normalized Neutron Energy Spectrum by Energy Group for All Sources:
(Note: descending group structure is independent of erg record.)

          Group     Contribution
          -----     ------------
             1        1.458E-07
             2        1.522E-07
             3        1.589E-07
             4        1.660E-07
             5        1.813E-07
             6        1.893E-07
             7        1.977E-07
             8        2.144E-07
             9        2.238E-07
            10        2.415E-07
            11        2.521E-07
            12        2.710E-07
            13        2.828E-07
            14        3.031E-07
            15        3.163E-07
            16        3.380E-07
            17        3.606E-07
            18        3.762E-07
            19        4.082E-07
            20        4.258E-07
            21        4.520E-07
            22        4.716E-07
            23        5.077E-07
            24        5.373E-07
            25        5.682E-07
            26        6.004E-07
            27        6.340E-07
            28        6.767E-07
            29        7.134E-07
            30        7.516E-07
            31        7.993E-07
            32        8.489E-07
            33        8.926E-07
            34        9.461E-07
            35        1.002E-06
            36        1.067E-06
            37        1.120E-06
            38        1.244E-06
            39        1.459E-06
            40        1.689E-06
            41        1.925E-06
            42        2.168E-06
            43        2.416E-06
            44        2.669E-06
            45        2.937E-06
            46        3.203E-06
            47        3.483E-06
            48        3.778E-06
            49        4.180E-06
            50        4.660E-06
            51        5.147E-06
            52        5.660E-06
            53        6.183E-06
            54        6.716E-06
            55        7.260E-06
            56        7.820E-06
            57        8.463E-06
            58        9.196E-06
            59        9.955E-06
            60        1.073E-05
            61        1.153E-05
            62        1.236E-05
            63        1.321E-05
            64        1.407E-05
            65        1.495E-05
            66        1.585E-05
            67        1.677E-05
            68        1.770E-05
            69        1.865E-05
            70        1.964E-05
            71        2.080E-05
            72        2.202E-05
            73        2.327E-05
            74        2.454E-05
            75        2.632E-05
            76        2.838E-05
            77        3.047E-05
            78        3.261E-05
            79        3.480E-05
            80        3.704E-05
            81        3.948E-05
            82        4.199E-05
            83        4.461E-05
            84        4.727E-05
            85        5.008E-05
            86        5.352E-05
            87        5.710E-05
            88        6.071E-05
            89        6.432E-05
            90        6.798E-05
            91        7.167E-05
            92        7.569E-05
            93        8.022E-05
            94        8.536E-05
            95        9.094E-05
            96        9.667E-05
            97        1.025E-04
            98        1.083E-04
            99        1.141E-04
           100        1.199E-04
           101        1.258E-04
           102        1.317E-04
           103        1.383E-04
           104        1.453E-04
           105        1.522E-04
           106        1.593E-04
           107        1.667E-04
           108        1.747E-04
           109        1.829E-04
           110        1.933E-04
           111        2.047E-04
           112        2.166E-04
           113        2.287E-04
           114        2.408E-04
           115        2.531E-04
           116        2.648E-04
           117        2.778E-04
           118        2.940E-04
           119        3.111E-04
           120        3.296E-04
           121        3.508E-04
           122        3.725E-04
           123        3.943E-04
           124        4.162E-04
           125        4.388E-04
           126        4.613E-04
           127        4.844E-04
           128        5.111E-04
           129        5.410E-04
           130        5.709E-04
           131        6.013E-04
           132        6.322E-04
           133        6.638E-04
           134        6.970E-04
           135        7.343E-04
           136        7.785E-04
           137        8.245E-04
           138        8.712E-04
           139        9.185E-04
           140        9.654E-04
           141        1.012E-03
           142        1.061E-03
           143        1.112E-03
           144        1.163E-03
           145        1.215E-03
           146        1.271E-03
           147        1.332E-03
           148        1.413E-03
           149        1.502E-03
           150        1.592E-03
           151        1.685E-03
           152        1.781E-03
           153        1.879E-03
           154        1.977E-03
           155        2.077E-03
           156        2.186E-03
           157        2.300E-03
           158        2.424E-03
           159        2.567E-03
           160        2.702E-03
           161        2.840E-03
           162        2.989E-03
           163        3.154E-03
           164        3.314E-03
           165        3.483E-03
           166        3.669E-03
           167        3.886E-03
           168        4.112E-03
           169        4.343E-03
           170        4.559E-03
           171        4.777E-03
           172        5.010E-03
           173        5.256E-03
           174        5.517E-03
           175        5.808E-03
           176        6.094E-03
           177        6.359E-03
           178        6.618E-03
           179        6.908E-03
           180        7.222E-03
           181        7.560E-03
           182        7.926E-03
           183        8.301E-03
           184        8.628E-03
           185        8.948E-03
           186        9.255E-03
           187        9.535E-03
           188        9.813E-03
           189        1.010E-02
           190        1.045E-02
           191        1.080E-02
           192        1.115E-02
           193        1.149E-02
           194        1.178E-02
           195        1.208E-02
           196        1.241E-02
           197        1.268E-02
           198        1.291E-02
           199        1.319E-02
           200        1.348E-02
           201        1.375E-02
           202        1.402E-02
           203        1.429E-02
           204        1.455E-02
           205        1.484E-02
           206        1.514E-02
           207        1.546E-02
           208        1.583E-02
           209        1.616E-02
           210        1.641E-02
           211        1.659E-02
           212        1.684E-02
           213        1.710E-02
           214        1.741E-02
           215        1.778E-02
           216        1.813E-02
           217        1.842E-02
           218        1.860E-02
           219        1.871E-02
           220        1.880E-02
           221        1.882E-02
           222        1.887E-02
           223        1.895E-02
           224        1.895E-02
           225        1.891E-02
           226        1.870E-02
           227        1.842E-02
           228        1.810E-02
           229        1.771E-02
           230        1.715E-02
           231        1.652E-02
           232        1.584E-02
           233        1.499E-02
           234        1.398E-02
           235        1.288E-02
           236        1.163E-02
           237        1.025E-02
           238        8.629E-03
           239        6.789E-03
           240        4.026E-03

Portion of Total Neutron Source Rate Accounted for in the Total Energy Spectrum:  99.0%.

Portion of Spontaneous Fission Neutron Source Rate Accounted For in the Spontaneous Fission Energy Spectrum: 100.0%.
